Timestamp (s),Power (mW)
0.00,5072.00
0.50,4998.72
1.01,4958.08
1.51,4958.08
2.01,4958.08
2.51,4958.08
3.01,4917.44
3.51,4917.44
4.02,4917.44
4.52,4917.44
5.02,4958.08
5.52,4917.44
6.03,4958.08
6.53,4917.44
7.03,4958.08
7.53,4917.44
8.03,4917.44
8.54,4917.44
9.04,4958.08
9.54,4909.70
